File: mof-801_xrd/5L-0.csv
"No.","Pos. [°2θ]","Iobs [cps]"
"1","5.0197","178.7530"
"6","5.2147","169.2554"
"11","5.4097","163.2180"
"16","5.6047","153.8390"
"21","5.7997","150.0785"
"26","5.9947","145.2993"
"31","6.1897","142.1619"
"36","6.3847","140.2606"
"41","6.5797","138.5704"
"46","6.7747","135.0745"
"51","6.9697","136.5621"
"56","7.1647","134.3590"
"61","7.3597","135.4212"
"66","7.5547","137.7747"
"71","7.7497","142.2902"
"76","7.9447","155.9185"
"81","8.1397","195.1788"
"86","8.3347","314.4229"
"91","8.5297","569.7476"
"96","8.7247","195.4571"
"101","8.9197","165.6984"
"106","9.1147","160.6912"
"111","9.3097","161.0402"
"116","9.5047","176.9143"
"121","9.6997","238.3863"
"126","9.8947","283.1477"
"131","10.0897","150.4500"
"136","10.2847","139.8908"
"141","10.4797","134.3755"
"146","10.6747","132.1996"
"151","10.8697","126.6139"
"156","11.0647","123.9431"
"161","11.2597","124.6299"
"166","11.4547","122.1882"
"171","11.6497","119.1551"
"176","11.8447","116.4123"
"181","12.0397","116.0358"
"186","12.2347","116.4342"
"191","12.4297","115.5171"
"196","12.6247","115.0162"
"201","12.8197","110.9476"
"206","13.0147","111.7284"
"211","13.2097","112.4461"
"216","13.4047","113.0782"
"221","13.5997","111.9748"
"226","13.7947","113.2242"
"231","13.9897","119.0971"
"236","14.1847","108.5928"
"241","14.3797","105.9930"
"246","14.5747","104.4533"
"251","14.7697","105.7792"
"256","14.9647","106.0861"
"261","15.1597","106.0160"
"266","15.3547","105.0580"
"271","15.5497","103.3943"
"276","15.7447","103.7212"
"281","15.9397","100.0047"
"286","16.1347","102.8591"
"291","16.3297","102.2138"
"296","16.5247","99.1867"
"301","16.7197","99.1395"
"306","16.9147","97.2497"
"311","17.1097","101.1685"
"316","17.3047","96.1692"
"321","17.4997","97.9649"
"326","17.6947","98.3841"
"331","17.8897","97.9828"
"336","18.0847","97.7625"
"341","18.2797","95.8541"
"346","18.4747","98.0944"
"351","18.6697","97.4601"
"356","18.8647","96.9104"
"361","19.0597","94.1584"
"366","19.2547","96.1152"
"371","19.4497","97.8263"
"376","19.6447","100.8968"
"381","19.8397","115.5751"
"386","20.0347","100.2781"
"391","20.2297","99.4748"
"396","20.4247","96.7060"
"401","20.6197","100.6708"
"406","20.8147","100.3032"
"411","21.0097","99.5044"
"416","21.2047","99.4123"
"421","21.3997","104.1483"
"426","21.5947","147.5486"
"431","21.7897","111.0772"
"436","21.9847","102.9328"
"441","22.1797","105.8008"
"446","22.3747","99.0359"
"451","22.5697","100.4674"
"456","22.7647","104.5174"
"461","22.9597","99.5398"
"466","23.1547","97.5433"
"471","23.3497","98.5943"
"476","23.5447","99.6587"
"481","23.7397","98.9765"
"486","23.9347","98.2080"
"491","24.1297","103.3476"
"496","24.3247","128.2248"
"501","24.5197","105.9970"
"506","24.7147","98.4685"
"511","24.9097","101.6422"
"516","25.1047","99.1820"
"521","25.2997","105.1685"
"526","25.4947","105.3013"
"531","25.6897","113.7074"
"536","25.8847","160.6418"
"541","26.0797","107.1578"
"546","26.2747","100.8452"
"551","26.4697","100.6173"
"556","26.6647","99.8049"
"561","26.8597","97.5583"
"566","27.0547","97.3332"
"571","27.2497","98.2177"
"576","27.4447","99.7244"
"581","27.6397","95.3475"
"586","27.8347","94.7407"
"591","28.0297","98.0768"
"596","28.2247","104.0588"
"601","28.4197","96.9974"
"606","28.6147","94.6995"
"611","28.8097","94.1951"
"616","29.0047","95.6322"
"621","29.1997","95.6629"
"626","29.3947","102.8442"
"631","29.5897","114.1274"
"636","29.7847","116.0675"
"641","29.9797","175.7168"
"646","30.1747","104.7534"
"651","30.3697","95.1778"
"656","30.5647","97.0605"
"661","30.7597","93.8889"
"666","30.9547","93.2963"
"671","31.1497","92.8236"
"676","31.3447","91.3267"
"681","31.5397","91.1464"
"686","31.7347","90.0048"
"691","31.9297","94.8085"
"696","32.1247","93.2142"
"701","32.3197","88.4546"
"706","32.5147","93.6142"
"711","32.7097","100.2040"
"716","32.9047","105.0523"
"721","33.0997","89.5010"
"726","33.2947","91.0355"
"731","33.4897","88.8244"
"736","33.6847","88.7687"
"741","33.8797","87.7497"
"746","34.0747","88.7993"
"751","34.2697","85.6072"
"756","34.4647","89.7678"
"761","34.6597","106.7796"
"766","34.8547","103.7394"
"771","35.0497","89.9607"
"776","35.2447","89.2522"
"781","35.4397","90.4305"
"786","35.6347","91.0392"
"791","35.8297","101.5644"
"796","36.0247","91.6742"
"801","36.2197","84.9427"
"806","36.4147","85.6366"
"811","36.6097","86.1177"
"816","36.8047","84.9146"
"821","36.9997","84.8211"
"826","37.1947","84.1359"
"831","37.3897","83.5390"
"836","37.5847","85.3377"
"841","37.7797","86.4122"
"846","37.9747","83.2983"
"851","38.1697","85.5503"
"856","38.3647","87.0525"
"861","38.5597","99.7736"
"866","38.7547","103.6446"
"871","38.9497","88.5801"
"876","39.1447","84.2394"
"881","39.3397","86.4959"
"886","39.5347","84.7807"
"891","39.7297","84.8216"
"896","39.9247","83.8832"
"901","40.1197","87.6270"
"906","40.3147","90.6888"
"911","40.5097","91.1183"
"916","40.7047","86.7118"
"921","40.8997","84.0641"
"926","41.0947","84.6015"
"931","41.2897","88.5992"
"936","41.4847","90.7843"
"941","41.6797","108.8957"
"946","41.8747","89.5286"
"951","42.0697","87.1218"
"956","42.2647","84.7354"
"961","42.4597","88.9621"
"966","42.6547","85.9804"
"971","42.8497","98.8484"
"976","43.0447","92.9275"
"981","43.2397","87.8180"
"986","43.4347","86.6723"
"991","43.6297","90.8303"
"996","43.8247","118.4669"
"1001","44.0197","97.9617"
"1006","44.2147","92.0824"
"1011","44.4097","84.4155"
"1016","44.6047","85.4524"
"1021","44.7997","86.1539"
"1026","44.9947","83.4286"
"1031","45.1897","85.1418"
"1036","45.3847","87.0532"
"1041","45.5797","84.9965"
"1046","45.7747","85.7411"
"1051","45.9697","84.7331"
"1056","46.1647","82.6639"
"1061","46.3597","83.6234"
"1066","46.5547","80.1674"
"1071","46.7497","80.7516"
"1076","46.9447","81.4735"
"1081","47.1397","82.3404"
"1086","47.3347","80.3776"
"1091","47.5297","77.5470"
"1096","47.7247","80.8383"
"1101","47.9197","80.9904"
"1106","48.1147","77.2874"
"1111","48.3097","78.6647"
"1116","48.5047","78.0784"
"1121","48.6997","79.5940"
"1126","48.8947","81.2934"
"1131","49.0897","76.6905"
"1136","49.2847","76.7310"
"1141","49.4797","80.3610"
"1146","49.6747","80.0625"
"1151","49.8697","78.0857"
"1156","50.0647","79.6768"
"1161","50.2597","79.4428"
"1166","50.4547","81.3980"
"1171","50.6497","86.4574"
"1176","50.8447","99.4998"
"1181","51.0397","95.6677"
"1186","51.2347","88.5822"
"1191","51.4297","81.1700"
"1196","51.6247","78.0105"
"1201","51.8197","77.2079"
"1206","52.0147","81.9151"
"1211","52.2097","85.7838"
"1216","52.4047","81.5068"
"1221","52.5997","79.9068"
"1226","52.7947","82.0533"
"1231","52.9897","83.1246"
"1236","53.1847","85.5216"
"1241","53.3797","83.3626"
"1246","53.5747","78.7498"
"1251","53.7697","79.5320"
"1256","53.9647","78.3560"
"1261","54.1597","76.9292"
"1266","54.3547","76.9894"
"1271","54.5497","76.4467"
"1276","54.7447","76.6794"
"1281","54.9397","77.9351"
"1286","55.1347","79.8418"
"1291","55.3297","77.4482"
"1296","55.5247","77.7654"
"1301","55.7197","76.2767"
"1306","55.9147","75.6970"
"1311","56.1097","76.3814"
"1316","56.3047","85.9655"
"1321","56.4997","82.8722"
"1326","56.6947","77.3959"
"1331","56.8897","81.2922"
"1336","57.0847","81.6225"
"1341","57.2797","81.3030"
"1346","57.4747","78.1413"
"1351","57.6697","79.2939"
"1356","57.8647","78.4632"
"1361","58.0597","76.4703"
"1366","58.2547","78.5502"
"1371","58.4497","78.6585"
"1376","58.6447","79.6327"
"1381","58.8397","80.5026"
"1386","59.0347","87.7237"
"1391","59.2297","87.9323"
"1396","59.4247","86.7976"
"1401","59.6197","78.3613"
"1406","59.8147","77.6983"
"1409","59.9317","78.6388"