File: mof-801_xrd/5L-1.csv
"No.","Pos. [°2θ]","Iobs [cps]"
"1","5.0197","174.6447"
"6","5.2147","168.2177"
"11","5.4097","156.2226"
"16","5.6047","150.5446"
"21","5.7997","146.9894"
"26","5.9947","140.4184"
"31","6.1897","141.3957"
"36","6.3847","137.3289"
"41","6.5797","136.6247"
"46","6.7747","132.7142"
"51","6.9697","132.0855"
"56","7.1647","133.7603"
"61","7.3597","130.8852"
"66","7.5547","129.7333"
"71","7.7497","133.2440"
"76","7.9447","144.4153"
"81","8.1397","170.7216"
"86","8.3347","267.3265"
"91","8.5297","563.3324"
"96","8.7247","226.5148"
"101","8.9197","164.5853"
"106","9.1147","152.8274"
"111","9.3097","155.9588"
"116","9.5047","161.3879"
"121","9.6997","206.3686"
"126","9.8947","333.7801"
"131","10.0897","160.6777"
"136","10.2847","137.9969"
"141","10.4797","134.1373"
"146","10.6747","130.4405"
"151","10.8697","127.2109"
"156","11.0647","128.8562"
"161","11.2597","126.5140"
"166","11.4547","124.4301"
"171","11.6497","121.2112"
"176","11.8447","120.5892"
"181","12.0397","121.6966"
"186","12.2347","120.4792"
"191","12.4297","116.3610"
"196","12.6247","117.1014"
"201","12.8197","118.7706"
"206","13.0147","116.5822"
"211","13.2097","114.9969"
"216","13.4047","114.5514"
"221","13.5997","114.7081"
"226","13.7947","118.1177"
"231","13.9897","126.3895"
"236","14.1847","113.2306"
"241","14.3797","114.5166"
"246","14.5747","111.3776"
"251","14.7697","112.4101"
"256","14.9647","112.1905"
"261","15.1597","109.6013"
"266","15.3547","109.5278"
"271","15.5497","107.9565"
"276","15.7447","107.7869"
"281","15.9397","106.6112"
"286","16.1347","107.2943"
"291","16.3297","109.2114"
"296","16.5247","108.3322"
"301","16.7197","102.8312"
"306","16.9147","106.0997"
"311","17.1097","104.2834"
"316","17.3047","103.0555"
"321","17.4997","103.0818"
"326","17.6947","103.7692"
"331","17.8897","99.8909"
"336","18.0847","103.5315"
"341","18.2797","100.8009"
"346","18.4747","100.5718"
"351","18.6697","100.9005"
"356","18.8647","100.5690"
"361","19.0597","101.7311"
"366","19.2547","100.9772"
"371","19.4497","99.0695"
"376","19.6447","100.3055"
"381","19.8397","116.6532"
"386","20.0347","108.5707"
"391","20.2297","98.7689"
"396","20.4247","102.4606"
"401","20.6197","102.1718"
"406","20.8147","100.6567"
"411","21.0097","101.1742"
"416","21.2047","101.0453"
"421","21.3997","104.7016"
"426","21.5947","127.1405"
"431","21.7897","146.9389"
"436","21.9847","103.6319"
"441","22.1797","106.3991"
"446","22.3747","105.3101"
"451","22.5697","103.5305"
"456","22.7647","107.9655"
"461","22.9597","106.2284"
"466","23.1547","99.8974"
"471","23.3497","102.5017"
"476","23.5447","104.8578"
"481","23.7397","102.3272"
"486","23.9347","104.2983"
"491","24.1297","101.6027"
"496","24.3247","115.7565"
"501","24.5197","131.2955"
"506","24.7147","105.5089"
"511","24.9097","104.5079"
"516","25.1047","103.4491"
"521","25.2997","107.3268"
"526","25.4947","114.0401"
"531","25.6897","110.9935"
"536","25.8847","147.5091"
"541","26.0797","130.9772"
"546","26.2747","106.7989"
"551","26.4697","104.6473"
"556","26.6647","102.9647"
"561","26.8597","102.5315"
"566","27.0547","101.9469"
"571","27.2497","100.9663"
"576","27.4447","100.0609"
"581","27.6397","100.7649"
"586","27.8347","98.5541"
"591","28.0297","100.3860"
"596","28.2247","102.4943"
"601","28.4197","100.6384"
"606","28.6147","94.5207"
"611","28.8097","97.8853"
"616","29.0047","97.1444"
"621","29.1997","100.9485"
"626","29.3947","100.4103"
"631","29.5897","117.4625"
"636","29.7847","106.9437"
"641","29.9797","147.2961"
"646","30.1747","144.4350"
"651","30.3697","97.5542"
"656","30.5647","95.6730"
"661","30.7597","96.1920"
"666","30.9547","95.3042"
"671","31.1497","92.9945"
"676","31.3447","94.4170"
"681","31.5397","91.0332"
"686","31.7347","94.0397"
"691","31.9297","93.2778"
"696","32.1247","99.0838"
"701","32.3197","95.8664"
"706","32.5147","90.3827"
"711","32.7097","92.1758"
"716","32.9047","116.4816"
"721","33.0997","97.2798"
"726","33.2947","91.0014"
"731","33.4897","91.8453"
"736","33.6847","90.6019"
"741","33.8797","88.6453"
"746","34.0747","89.8028"
"751","34.2697","87.1823"
"756","34.4647","88.8407"
"761","34.6597","95.5299"
"766","34.8547","124.7552"
"771","35.0497","97.7985"
"776","35.2447","90.0831"
"781","35.4397","91.5029"
"786","35.6347","94.7639"
"791","35.8297","96.5334"
"796","36.0247","105.2773"
"801","36.2197","90.0039"
"806","36.4147","88.5371"
"811","36.6097","86.5220"
"816","36.8047","88.0760"
"821","36.9997","85.3717"
"826","37.1947","85.6723"
"831","37.3897","87.4133"
"836","37.5847","85.7911"
"841","37.7797","87.1528"
"846","37.9747","84.1268"
"851","38.1697","86.7542"
"856","38.3647","87.2161"
"861","38.5597","89.7364"
"866","38.7547","113.7232"
"871","38.9497","97.5609"
"876","39.1447","86.2239"
"881","39.3397","87.3733"
"886","39.5347","87.6855"
"891","39.7297","86.4520"
"896","39.9247","89.1918"
"901","40.1197","86.6287"
"906","40.3147","85.3251"
"911","40.5097","93.8724"
"916","40.7047","91.2049"
"921","40.8997","89.3996"
"926","41.0947","87.3656"
"931","41.2897","86.0577"
"936","41.4847","88.5400"
"941","41.6797","100.7404"
"946","41.8747","105.2896"
"951","42.0697","89.0979"
"956","42.2647","86.4264"
"961","42.4597","86.7307"
"966","42.6547","85.5281"
"971","42.8497","87.6375"
"976","43.0447","103.4973"
"981","43.2397","87.8783"
"986","43.4347","85.3776"
"991","43.6297","87.2048"
"996","43.8247","94.1825"
"1001","44.0197","122.8529"
"1006","44.2147","95.1400"
"1011","44.4097","94.9057"
"1016","44.6047","87.7438"
"1021","44.7997","85.4835"
"1026","44.9947","81.2443"
"1031","45.1897","81.9844"
"1036","45.3847","85.5972"
"1041","45.5797","87.4479"
"1046","45.7747","85.0517"
"1051","45.9697","83.0118"
"1056","46.1647","84.3914"
"1061","46.3597","87.3771"
"1066","46.5547","82.5057"
"1071","46.7497","81.8367"
"1076","46.9447","80.9147"
"1081","47.1397","80.3410"
"1086","47.3347","83.8553"
"1091","47.5297","80.8132"
"1096","47.7247","81.9307"
"1101","47.9197","82.1463"
"1106","48.1147","81.7480"
"1111","48.3097","81.6915"
"1116","48.5047","81.1379"
"1121","48.6997","78.5131"
"1126","48.8947","80.5979"
"1131","49.0897","77.4669"
"1136","49.2847","77.1857"
"1141","49.4797","81.4805"
"1146","49.6747","78.8177"
"1151","49.8697","80.1357"
"1156","50.0647","79.9240"
"1161","50.2597","80.0607"
"1166","50.4547","81.8288"
"1171","50.6497","83.3872"
"1176","50.8447","92.2792"
"1181","51.0397","101.0712"
"1186","51.2347","97.2414"
"1191","51.4297","86.0836"
"1196","51.6247","82.0742"
"1201","51.8197","78.5732"
"1206","52.0147","79.9001"
"1211","52.2097","84.8456"
"1216","52.4047","87.8411"
"1221","52.5997","83.5313"
"1226","52.7947","84.2544"
"1231","52.9897","82.5527"
"1236","53.1847","85.4482"
"1241","53.3797","84.9841"
"1246","53.5747","83.8511"
"1251","53.7697","81.4186"
"1256","53.9647","80.8093"
"1261","54.1597","77.9463"
"1266","54.3547","79.3759"
"1271","54.5497","79.2478"
"1276","54.7447","77.4454"
"1281","54.9397","79.2133"
"1286","55.1347","78.8877"
"1291","55.3297","81.6971"
"1296","55.5247","81.3585"
"1301","55.7197","80.8145"
"1306","55.9147","80.0954"
"1311","56.1097","78.0176"
"1316","56.3047","81.0733"
"1321","56.4997","87.0208"
"1326","56.6947","87.3902"
"1331","56.8897","81.4548"
"1336","57.0847","81.7315"
"1341","57.2797","84.0173"
"1346","57.4747","80.9499"
"1351","57.6697","80.0659"
"1356","57.8647","82.6569"
"1361","58.0597","79.9179"
"1366","58.2547","79.9952"
"1371","58.4497","82.0295"
"1376","58.6447","83.0308"
"1381","58.8397","80.1328"
"1386","59.0347","82.0287"
"1391","59.2297","87.4585"
"1396","59.4247","87.6483"
"1401","59.6197","89.0939"
"1406","59.8147","81.0455"
"1409","59.9317","80.3823"