File: mof-801_xrd/5L-2.csv
"No.","Pos. [°2θ]","Iobs [cps]"
"1","5.0197","167.1128"
"6","5.2147","159.2189"
"11","5.4097","154.6347"
"16","5.6047","147.6516"
"21","5.7997","142.6877"
"26","5.9947","141.0520"
"31","6.1897","137.3290"
"36","6.3847","135.6235"
"41","6.5797","134.9507"
"46","6.7747","133.1905"
"51","6.9697","136.2726"
"56","7.1647","133.0040"
"61","7.3597","132.5219"
"66","7.5547","132.3758"
"71","7.7497","136.1486"
"76","7.9447","146.3710"
"81","8.1397","171.7016"
"86","8.3347","250.5785"
"91","8.5297","459.7985"
"96","8.7247","222.0022"
"101","8.9197","168.2262"
"106","9.1147","161.7312"
"111","9.3097","156.1822"
"116","9.5047","165.1723"
"121","9.6997","201.3916"
"126","9.8947","282.4716"
"131","10.0897","159.1849"
"136","10.2847","141.7354"
"141","10.4797","140.1310"
"146","10.6747","133.6250"
"151","10.8697","128.1759"
"156","11.0647","127.0482"
"161","11.2597","127.5108"
"166","11.4547","119.9190"
"171","11.6497","122.6819"
"176","11.8447","120.7122"
"181","12.0397","117.0304"
"186","12.2347","116.4837"
"191","12.4297","112.7159"
"196","12.6247","114.3933"
"201","12.8197","111.6037"
"206","13.0147","112.0102"
"211","13.2097","106.5687"
"216","13.4047","108.7830"
"221","13.5997","110.3495"
"226","13.7947","110.2981"
"231","13.9897","115.6126"
"236","14.1847","107.2608"
"241","14.3797","107.0237"
"246","14.5747","105.8943"
"251","14.7697","105.2362"
"256","14.9647","103.6196"
"261","15.1597","102.1172"
"266","15.3547","101.8466"
"271","15.5497","99.4899"
"276","15.7447","100.3252"
"281","15.9397","100.2311"
"286","16.1347","98.9555"
"291","16.3297","98.4196"
"296","16.5247","99.2820"
"301","16.7197","96.4512"
"306","16.9147","97.1350"
"311","17.1097","99.0494"
"316","17.3047","95.5227"
"321","17.4997","96.1430"
"326","17.6947","96.7716"
"331","17.8897","96.5209"
"336","18.0847","95.6394"
"341","18.2797","96.8036"
"346","18.4747","93.6853"
"351","18.6697","95.0531"
"356","18.8647","94.5844"
"361","19.0597","95.1061"
"366","19.2547","93.6068"
"371","19.4497","95.0170"
"376","19.6447","92.4220"
"381","19.8397","107.9494"
"386","20.0347","98.3906"
"391","20.2297","96.4586"
"396","20.4247","95.7198"
"401","20.6197","96.6170"
"406","20.8147","99.3664"
"411","21.0097","94.5241"
"416","21.2047","96.2450"
"421","21.3997","100.9420"
"426","21.5947","124.5126"
"431","21.7897","118.6919"
"436","21.9847","100.5813"
"441","22.1797","102.4198"
"446","22.3747","100.4820"
"451","22.5697","99.7304"
"456","22.7647","100.6183"
"461","22.9597","99.4579"
"466","23.1547","96.1944"
"471","23.3497","97.6035"
"476","23.5447","97.8321"
"481","23.7397","99.1200"
"486","23.9347","99.6217"
"491","24.1297","100.8092"
"496","24.3247","113.3266"
"501","24.5197","111.0206"
"506","24.7147","99.6621"
"511","24.9097","101.1441"
"516","25.1047","102.0974"
"521","25.2997","102.1462"
"526","25.4947","105.1119"
"531","25.6897","106.4646"
"536","25.8847","139.0397"
"541","26.0797","110.5524"
"546","26.2747","100.4466"
"551","26.4697","101.1390"
"556","26.6647","98.1814"
"561","26.8597","98.8812"
"566","27.0547","96.9345"
"571","27.2497","97.1104"
"576","27.4447","98.0746"
"581","27.6397","98.8938"
"586","27.8347","96.8832"
"591","28.0297","97.1224"
"596","28.2247","99.4638"
"601","28.4197","96.1253"
"606","28.6147","93.5874"
"611","28.8097","93.3216"
"616","29.0047","92.8841"
"621","29.1997","95.7222"
"626","29.3947","96.9309"
"631","29.5897","110.5009"
"636","29.7847","108.0199"
"641","29.9797","146.3603"
"646","30.1747","112.9022"
"651","30.3697","98.4422"
"656","30.5647","92.5305"
"661","30.7597","92.6453"
"666","30.9547","93.2013"
"671","31.1497","92.4344"
"676","31.3447","92.2352"
"681","31.5397","89.1900"
"686","31.7347","92.2870"
"691","31.9297","90.3953"
"696","32.1247","93.3748"
"701","32.3197","89.8615"
"706","32.5147","89.4828"
"711","32.7097","90.7136"
"716","32.9047","105.3383"
"721","33.0997","92.5024"
"726","33.2947","90.0074"
"731","33.4897","88.3859"
"736","33.6847","88.4368"
"741","33.8797","88.8195"
"746","34.0747","88.7026"
"751","34.2697","86.2569"
"756","34.4647","86.0485"
"761","34.6597","96.9590"
"766","34.8547","109.9267"
"771","35.0497","89.5001"
"776","35.2447","87.2800"
"781","35.4397","89.0169"
"786","35.6347","89.7023"
"791","35.8297","94.6416"
"796","36.0247","89.2384"
"801","36.2197","85.2639"
"806","36.4147","86.5963"
"811","36.6097","83.8891"
"816","36.8047","85.0821"
"821","36.9997","85.9258"
"826","37.1947","87.3127"
"831","37.3897","83.4581"
"836","37.5847","86.1847"
"841","37.7797","86.5713"
"846","37.9747","83.7172"
"851","38.1697","83.8025"
"856","38.3647","86.7890"
"861","38.5597","88.1703"
"866","38.7547","102.4019"
"871","38.9497","89.1792"
"876","39.1447","84.5519"
"881","39.3397","84.7990"
"886","39.5347","84.8630"
"891","39.7297","85.7679"
"896","39.9247","82.9928"
"901","40.1197","82.0134"
"906","40.3147","86.6803"
"911","40.5097","85.5711"
"916","40.7047","87.0446"
"921","40.8997","84.9953"
"926","41.0947","86.4004"
"931","41.2897","85.4080"
"936","41.4847","88.4217"
"941","41.6797","101.5893"
"946","41.8747","91.3541"
"951","42.0697","85.1428"
"956","42.2647","87.4684"
"961","42.4597","85.6810"
"966","42.6547","85.4856"
"971","42.8497","89.2189"
"976","43.0447","94.8571"
"981","43.2397","83.9024"
"986","43.4347","85.2529"
"991","43.6297","89.4617"
"996","43.8247","101.7225"
"1001","44.0197","104.2317"
"1006","44.2147","94.6240"
"1011","44.4097","82.8355"
"1016","44.6047","84.0233"
"1021","44.7997","83.5189"
"1026","44.9947","83.7548"
"1031","45.1897","81.5278"
"1036","45.3847","84.2994"
"1041","45.5797","85.7518"
"1046","45.7747","82.7328"
"1051","45.9697","82.8666"
"1056","46.1647","86.3867"
"1061","46.3597","84.8165"
"1066","46.5547","80.1607"
"1071","46.7497","81.0886"
"1076","46.9447","79.9454"
"1081","47.1397","81.2348"
"1086","47.3347","79.2885"
"1091","47.5297","80.5798"
"1096","47.7247","78.0611"
"1101","47.9197","79.7687"
"1106","48.1147","81.6845"
"1111","48.3097","81.4877"
"1116","48.5047","78.9089"
"1121","48.6997","78.7574"
"1126","48.8947","81.9487"
"1131","49.0897","79.7027"
"1136","49.2847","79.2329"
"1141","49.4797","79.7163"
"1146","49.6747","80.5194"
"1151","49.8697","79.0766"
"1156","50.0647","80.1935"
"1161","50.2597","79.5852"
"1166","50.4547","81.6098"
"1171","50.6497","83.9615"
"1176","50.8447","95.7929"
"1181","51.0397","95.6841"
"1186","51.2347","90.5016"
"1191","51.4297","82.5109"
"1196","51.6247","81.9765"
"1201","51.8197","80.4694"
"1206","52.0147","81.9385"
"1211","52.2097","86.4559"
"1216","52.4047","84.3207"
"1221","52.5997","80.8536"
"1226","52.7947","80.2951"
"1231","52.9897","81.3864"
"1236","53.1847","82.2551"
"1241","53.3797","82.3477"
"1246","53.5747","79.1482"
"1251","53.7697","78.7562"
"1256","53.9647","79.2326"
"1261","54.1597","78.9256"
"1266","54.3547","78.9243"
"1271","54.5497","79.2121"
"1276","54.7447","78.5146"
"1281","54.9397","79.7277"
"1286","55.1347","80.4026"
"1291","55.3297","83.2110"
"1296","55.5247","78.4089"
"1301","55.7197","81.6711"
"1306","55.9147","80.9154"
"1311","56.1097","78.5366"
"1316","56.3047","80.3979"
"1321","56.4997","85.9892"
"1326","56.6947","80.3256"
"1331","56.8897","78.0790"
"1336","57.0847","81.3353"
"1341","57.2797","81.9593"
"1346","57.4747","79.2598"
"1351","57.6697","79.1860"
"1356","57.8647","78.2508"
"1361","58.0597","78.2962"
"1366","58.2547","79.2931"
"1371","58.4497","80.8478"
"1376","58.6447","78.9364"
"1381","58.8397","78.7070"
"1386","59.0347","82.3358"
"1391","59.2297","89.0584"
"1396","59.4247","90.0632"
"1401","59.6197","82.5540"
"1406","59.8147","77.4448"
"1409","59.9317","79.3870"