File: mof-801_xrd/5L-3.csv
"No.","Pos. [°2θ]","Iobs [cps]"
"1","5.0197","175.1426"
"6","5.2147","167.9602"
"11","5.4097","156.2279"
"16","5.6047","150.4078"
"21","5.7997","147.3569"
"26","5.9947","143.1909"
"31","6.1897","138.2080"
"36","6.3847","136.8826"
"41","6.5797","135.8486"
"46","6.7747","137.4338"
"51","6.9697","136.8504"
"56","7.1647","133.5648"
"61","7.3597","128.9163"
"66","7.5547","130.0062"
"71","7.7497","132.2008"
"76","7.9447","145.9503"
"81","8.1397","197.1178"
"86","8.3347","371.2308"
"91","8.5297","792.3782"
"96","8.7247","173.2198"
"101","8.9197","135.4541"
"106","9.1147","128.4781"
"111","9.3097","130.4853"
"116","9.5047","150.7606"
"121","9.6997","244.7965"
"126","9.8947","338.1796"
"131","10.0897","130.7946"
"136","10.2847","123.6843"
"141","10.4797","120.6181"
"146","10.6747","115.9388"
"151","10.8697","117.3406"
"156","11.0647","116.2921"
"161","11.2597","113.9380"
"166","11.4547","111.9277"
"171","11.6497","115.2913"
"176","11.8447","110.8964"
"181","12.0397","110.1922"
"186","12.2347","110.7863"
"191","12.4297","110.4737"
"196","12.6247","107.0840"
"201","12.8197","106.6304"
"206","13.0147","105.5586"
"211","13.2097","103.2756"
"216","13.4047","105.8728"
"221","13.5997","104.3232"
"226","13.7947","110.6954"
"231","13.9897","121.6276"
"236","14.1847","106.2359"
"241","14.3797","101.2437"
"246","14.5747","101.1041"
"251","14.7697","101.6694"
"256","14.9647","98.6680"
"261","15.1597","99.9150"
"266","15.3547","99.2666"
"271","15.5497","97.6373"
"276","15.7447","95.1249"
"281","15.9397","95.0314"
"286","16.1347","97.0837"
"291","16.3297","98.2200"
"296","16.5247","95.8007"
"301","16.7197","93.0066"
"306","16.9147","96.0780"
"311","17.1097","94.1528"
"316","17.3047","91.9123"
"321","17.4997","93.9304"
"326","17.6947","93.5105"
"331","17.8897","92.9013"
"336","18.0847","92.0053"
"341","18.2797","93.8173"
"346","18.4747","94.0608"
"351","18.6697","91.3524"
"356","18.8647","93.0177"
"361","19.0597","90.9137"
"366","19.2547","91.8190"
"371","19.4497","92.7522"
"376","19.6447","99.2346"
"381","19.8397","111.5057"
"386","20.0347","88.5502"
"391","20.2297","92.5382"
"396","20.4247","91.8379"
"401","20.6197","90.9733"
"406","20.8147","89.5083"
"411","21.0097","89.8427"
"416","21.2047","93.2288"
"421","21.3997","103.8241"
"426","21.5947","182.6892"
"431","21.7897","100.1176"
"436","21.9847","91.6020"
"441","22.1797","99.7463"
"446","22.3747","91.9792"
"451","22.5697","93.0688"
"456","22.7647","97.8859"
"461","22.9597","92.9321"
"466","23.1547","91.8905"
"471","23.3497","91.5952"
"476","23.5447","91.4254"
"481","23.7397","91.3489"
"486","23.9347","93.1907"
"491","24.1297","99.2391"
"496","24.3247","150.3681"
"501","24.5197","99.8506"
"506","24.7147","95.9257"
"511","24.9097","93.8902"
"516","25.1047","97.8154"
"521","25.2997","102.7607"
"526","25.4947","103.0188"
"531","25.6897","127.8283"
"536","25.8847","176.1732"
"541","26.0797","99.2027"
"546","26.2747","96.4145"
"551","26.4697","95.3318"
"556","26.6647","94.8094"
"561","26.8597","93.6138"
"566","27.0547","92.7011"
"571","27.2497","92.1976"
"576","27.4447","90.2087"
"581","27.6397","89.7766"
"586","27.8347","89.1085"
"591","28.0297","93.5699"
"596","28.2247","97.9461"
"601","28.4197","87.9068"
"606","28.6147","87.5659"
"611","28.8097","89.2167"
"616","29.0047","88.2984"
"621","29.1997","93.9862"
"626","29.3947","106.3163"
"631","29.5897","110.4025"
"636","29.7847","134.7285"
"641","29.9797","195.3122"
"646","30.1747","95.8436"
"651","30.3697","90.4438"
"656","30.5647","89.1908"
"661","30.7597","87.9463"
"666","30.9547","86.6847"
"671","31.1497","86.5846"
"676","31.3447","83.7431"
"681","31.5397","86.1886"
"686","31.7347","87.0021"
"691","31.9297","88.4818"
"696","32.1247","88.2589"
"701","32.3197","86.2572"
"706","32.5147","84.1955"
"711","32.7097","110.4650"
"716","32.9047","95.2731"
"721","33.0997","85.0121"
"726","33.2947","84.6280"
"731","33.4897","82.6799"
"736","33.6847","83.2463"
"741","33.8797","81.0827"
"746","34.0747","81.1170"
"751","34.2697","81.8589"
"756","34.4647","86.9590"
"761","34.6597","131.4585"
"766","34.8547","92.6261"
"771","35.0497","82.2916"
"776","35.2447","83.5262"
"781","35.4397","86.6923"
"786","35.6347","92.0843"
"791","35.8297","106.2092"
"796","36.0247","83.8450"
"801","36.2197","78.0651"
"806","36.4147","77.4610"
"811","36.6097","78.7541"
"816","36.8047","79.7340"
"821","36.9997","80.6561"
"826","37.1947","77.9943"
"831","37.3897","81.0770"
"836","37.5847","80.0974"
"841","37.7797","80.4727"
"846","37.9747","80.1151"
"851","38.1697","81.8136"
"856","38.3647","83.1531"
"861","38.5597","118.6503"
"866","38.7547","95.2117"
"871","38.9497","79.3568"
"876","39.1447","78.8905"
"881","39.3397","81.6243"
"886","39.5347","79.1668"
"891","39.7297","77.1483"
"896","39.9247","78.4947"
"901","40.1197","81.3042"
"906","40.3147","90.7757"
"911","40.5097","82.1611"
"916","40.7047","78.8440"
"921","40.8997","76.7166"
"926","41.0947","78.3376"
"931","41.2897","80.4206"
"936","41.4847","103.7145"
"941","41.6797","104.0373"
"946","41.8747","80.5958"
"951","42.0697","77.8038"
"956","42.2647","78.4385"
"961","42.4597","79.3484"
"966","42.6547","82.6787"
"971","42.8497","105.1964"
"976","43.0447","85.4743"
"981","43.2397","77.4143"
"986","43.4347","80.5752"
"991","43.6297","97.1302"
"996","43.8247","124.5736"
"1001","44.0197","94.6320"
"1006","44.2147","85.3319"
"1011","44.4097","77.0561"
"1016","44.6047","76.9739"
"1021","44.7997","74.0956"
"1026","44.9947","75.5253"
"1031","45.1897","81.5123"
"1036","45.3847","80.0662"
"1041","45.5797","79.3514"
"1046","45.7747","79.0852"
"1051","45.9697","79.2844"
"1056","46.1647","83.4835"
"1061","46.3597","76.2076"
"1066","46.5547","73.7350"
"1071","46.7497","73.9781"
"1076","46.9447","73.1612"
"1081","47.1397","74.7703"
"1086","47.3347","72.4996"
"1091","47.5297","72.9957"
"1096","47.7247","72.5061"
"1101","47.9197","75.5972"
"1106","48.1147","71.3899"
"1111","48.3097","70.5880"
"1116","48.5047","74.4604"
"1121","48.6997","72.1612"
"1126","48.8947","70.4285"
"1131","49.0897","71.8375"
"1136","49.2847","71.9315"
"1141","49.4797","73.9530"
"1146","49.6747","71.0686"
"1151","49.8697","71.4267"
"1156","50.0647","71.7280"
"1161","50.2597","71.6366"
"1166","50.4547","75.5053"
"1171","50.6497","102.5826"
"1176","50.8447","98.9819"
"1181","51.0397","89.9271"
"1186","51.2347","76.2667"
"1191","51.4297","73.9194"
"1196","51.6247","72.6453"
"1201","51.8197","73.0947"
"1206","52.0147","82.7420"
"1211","52.2097","79.1503"
"1216","52.4047","74.3311"
"1221","52.5997","72.1290"
"1226","52.7947","76.7608"
"1231","52.9897","78.8000"
"1236","53.1847","79.2778"
"1241","53.3797","72.0870"
"1246","53.5747","73.9203"
"1251","53.7697","72.8211"
"1256","53.9647","72.1798"
"1261","54.1597","70.1616"
"1266","54.3547","70.6512"
"1271","54.5497","72.9929"
"1276","54.7447","72.3911"
"1281","54.9397","73.6953"
"1286","55.1347","74.4008"
"1291","55.3297","73.1070"
"1296","55.5247","69.7321"
"1301","55.7197","73.5227"
"1306","55.9147","71.5618"
"1311","56.1097","73.5043"
"1316","56.3047","82.7378"
"1321","56.4997","74.8590"
"1326","56.6947","73.1795"
"1331","56.8897","73.5673"
"1336","57.0847","77.4782"
"1341","57.2797","71.0869"
"1346","57.4747","73.4384"
"1351","57.6697","72.0350"
"1356","57.8647","70.5632"
"1361","58.0597","69.6310"
"1366","58.2547","76.4828"
"1371","58.4497","73.7230"
"1376","58.6447","71.3766"
"1381","58.8397","75.8558"
"1386","59.0347","92.0289"
"1391","59.2297","92.2762"
"1396","59.4247","79.3431"
"1401","59.6197","71.6261"
"1406","59.8147","71.2219"
"1409","59.9317","67.5333"