File: mof-801_xrd/5L-4.csv
"No.","Pos. [°2θ]","Iobs [cps]"
"1","5.0197","169.4367"
"6","5.2147","158.3018"
"11","5.4097","154.1549"
"16","5.6047","146.0087"
"21","5.7997","141.4481"
"26","5.9947","134.9495"
"31","6.1897","137.7562"
"36","6.3847","134.2040"
"41","6.5797","128.9664"
"46","6.7747","131.0193"
"51","6.9697","131.5230"
"56","7.1647","127.3119"
"61","7.3597","124.5913"
"66","7.5547","124.5815"
"71","7.7497","129.7016"
"76","7.9447","140.2944"
"81","8.1397","176.9081"
"86","8.3347","295.8110"
"91","8.5297","666.0490"
"96","8.7247","222.3767"
"101","8.9197","144.5176"
"106","9.1147","133.8586"
"111","9.3097","134.6507"
"116","9.5047","147.5563"
"121","9.6997","208.6796"
"126","9.8947","369.3218"
"131","10.0897","146.1759"
"136","10.2847","127.3581"
"141","10.4797","122.4324"
"146","10.6747","119.9076"
"151","10.8697","118.8877"
"156","11.0647","116.7792"
"161","11.2597","117.7029"
"166","11.4547","115.5997"
"171","11.6497","115.6643"
"176","11.8447","114.5835"
"181","12.0397","115.0819"
"186","12.2347","110.4713"
"191","12.4297","110.0138"
"196","12.6247","108.6888"
"201","12.8197","109.9989"
"206","13.0147","109.4125"
"211","13.2097","107.5759"
"216","13.4047","105.9708"
"221","13.5997","107.3603"
"226","13.7947","108.0794"
"231","13.9897","120.0922"
"236","14.1847","107.0657"
"241","14.3797","102.8456"
"246","14.5747","103.6443"
"251","14.7697","103.1636"
"256","14.9647","100.2992"
"261","15.1597","100.8598"
"266","15.3547","99.7136"
"271","15.5497","98.1220"
"276","15.7447","97.5506"
"281","15.9397","98.3859"
"286","16.1347","96.6610"
"291","16.3297","96.4204"
"296","16.5247","98.3014"
"301","16.7197","94.1738"
"306","16.9147","95.5526"
"311","17.1097","93.3944"
"316","17.3047","93.9704"
"321","17.4997","93.4831"
"326","17.6947","94.7175"
"331","17.8897","95.0499"
"336","18.0847","93.9309"
"341","18.2797","92.2877"
"346","18.4747","94.4153"
"351","18.6697","91.8741"
"356","18.8647","93.1016"
"361","19.0597","92.5519"
"366","19.2547","93.3438"
"371","19.4497","92.9313"
"376","19.6447","93.5492"
"381","19.8397","109.3192"
"386","20.0347","95.8138"
"391","20.2297","92.8528"
"396","20.4247","89.2401"
"401","20.6197","89.3155"
"406","20.8147","92.0297"
"411","21.0097","90.2542"
"416","21.2047","89.2150"
"421","21.3997","97.0639"
"426","21.5947","136.5746"
"431","21.7897","124.2239"
"436","21.9847","95.8189"
"441","22.1797","97.1309"
"446","22.3747","96.1255"
"451","22.5697","94.4151"
"456","22.7647","97.8113"
"461","22.9597","94.6766"
"466","23.1547","93.5854"
"471","23.3497","92.0815"
"476","23.5447","89.8629"
"481","23.7397","92.3934"
"486","23.9347","91.3422"
"491","24.1297","93.6106"
"496","24.3247","118.0923"
"501","24.5197","114.1891"
"506","24.7147","96.8744"
"511","24.9097","97.4167"
"516","25.1047","94.3373"
"521","25.2997","99.2676"
"526","25.4947","102.3461"
"531","25.6897","105.9839"
"536","25.8847","169.8475"
"541","26.0797","109.9651"
"546","26.2747","95.3171"
"551","26.4697","93.6420"
"556","26.6647","93.1277"
"561","26.8597","93.5636"
"566","27.0547","92.9111"
"571","27.2497","90.5650"
"576","27.4447","90.7247"
"581","27.6397","88.1840"
"586","27.8347","89.3056"
"591","28.0297","92.4357"
"596","28.2247","95.3941"
"601","28.4197","88.5267"
"606","28.6147","88.4779"
"611","28.8097","86.2254"
"616","29.0047","86.3314"
"621","29.1997","88.6076"
"626","29.3947","93.5013"
"631","29.5897","115.9826"
"636","29.7847","105.1520"
"641","29.9797","188.3336"
"646","30.1747","112.8976"
"651","30.3697","90.8347"
"656","30.5647","87.8616"
"661","30.7597","87.9362"
"666","30.9547","84.8722"
"671","31.1497","85.1572"
"676","31.3447","84.1726"
"681","31.5397","83.2520"
"686","31.7347","85.2713"
"691","31.9297","89.4157"
"696","32.1247","85.7472"
"701","32.3197","84.3465"
"706","32.5147","84.4809"
"711","32.7097","89.7330"
"716","32.9047","112.0838"
"721","33.0997","84.1538"
"726","33.2947","83.9100"
"731","33.4897","81.2331"
"736","33.6847","80.2620"
"741","33.8797","83.2204"
"746","34.0747","79.6875"
"751","34.2697","80.6607"
"756","34.4647","83.1190"
"761","34.6597","97.9560"
"766","34.8547","113.1519"
"771","35.0497","84.5871"
"776","35.2447","81.5985"
"781","35.4397","85.6797"
"786","35.6347","84.7178"
"791","35.8297","98.9091"
"796","36.0247","89.5226"
"801","36.2197","75.7929"
"806","36.4147","79.0052"
"811","36.6097","78.3960"
"816","36.8047","79.1815"
"821","36.9997","74.2773"
"826","37.1947","77.2141"
"831","37.3897","74.6179"
"836","37.5847","77.0514"
"841","37.7797","79.0440"
"846","37.9747","76.2716"
"851","38.1697","75.7693"
"856","38.3647","79.4620"
"861","38.5597","88.0949"
"866","38.7547","108.6710"
"871","38.9497","83.2931"
"876","39.1447","76.7479"
"881","39.3397","78.2724"
"886","39.5347","77.4524"
"891","39.7297","76.5052"
"896","39.9247","77.5439"
"901","40.1197","77.7687"
"906","40.3147","84.3136"
"911","40.5097","81.3157"
"916","40.7047","77.4654"
"921","40.8997","78.7107"
"926","41.0947","77.6946"
"931","41.2897","77.1914"
"936","41.4847","83.7303"
"941","41.6797","110.3573"
"946","41.8747","84.1311"
"951","42.0697","78.0864"
"956","42.2647","78.9632"
"961","42.4597","75.4822"
"966","42.6547","77.0183"
"971","42.8497","90.6753"
"976","43.0447","88.7857"
"981","43.2397","78.4045"
"986","43.4347","78.2725"
"991","43.6297","82.4408"
"996","43.8247","115.3042"
"1001","44.0197","102.9502"
"1006","44.2147","88.1171"
"1011","44.4097","78.5681"
"1016","44.6047","74.6752"
"1021","44.7997","71.5574"
"1026","44.9947","72.7325"
"1031","45.1897","73.9504"
"1036","45.3847","78.1645"
"1041","45.5797","78.1012"
"1046","45.7747","73.8416"
"1051","45.9697","76.0470"
"1056","46.1647","77.8760"
"1061","46.3597","76.6999"
"1066","46.5547","73.1114"
"1071","46.7497","71.0957"
"1076","46.9447","74.7308"
"1081","47.1397","72.8171"
"1086","47.3347","73.8945"
"1091","47.5297","70.2970"
"1096","47.7247","72.5891"
"1101","47.9197","71.8570"
"1106","48.1147","70.6183"
"1111","48.3097","71.4435"
"1116","48.5047","70.4700"
"1121","48.6997","71.1477"
"1126","48.8947","68.7071"
"1131","49.0897","69.9167"
"1136","49.2847","67.9535"
"1141","49.4797","70.1802"
"1146","49.6747","71.6158"
"1151","49.8697","70.9143"
"1156","50.0647","70.3461"
"1161","50.2597","69.1089"
"1166","50.4547","73.2026"
"1171","50.6497","78.2290"
"1176","50.8447","100.4130"
"1181","51.0397","91.5732"
"1186","51.2347","80.1529"
"1191","51.4297","73.0953"
"1196","51.6247","68.6437"
"1201","51.8197","68.8544"
"1206","52.0147","71.9416"
"1211","52.2097","78.5555"
"1216","52.4047","73.1969"
"1221","52.5997","70.4626"
"1226","52.7947","71.7297"
"1231","52.9897","75.1627"
"1236","53.1847","78.6072"
"1241","53.3797","74.7678"
"1246","53.5747","70.4474"
"1251","53.7697","72.6020"
"1256","53.9647","70.4369"
"1261","54.1597","66.4931"
"1266","54.3547","69.6158"
"1271","54.5497","70.2757"
"1276","54.7447","69.4493"
"1281","54.9397","68.6578"
"1286","55.1347","72.1029"
"1291","55.3297","73.7002"
"1296","55.5247","68.5244"
"1301","55.7197","69.8411"
"1306","55.9147","69.0611"
"1311","56.1097","68.5145"
"1316","56.3047","79.9424"
"1321","56.4997","78.9343"
"1326","56.6947","71.0671"
"1331","56.8897","71.3747"
"1336","57.0847","72.9995"
"1341","57.2797","71.4776"
"1346","57.4747","69.8718"
"1351","57.6697","67.8955"
"1356","57.8647","68.9652"
"1361","58.0597","67.8360"
"1366","58.2547","69.1507"
"1371","58.4497","72.7095"
"1376","58.6447","68.3283"
"1381","58.8397","71.1236"
"1386","59.0347","79.2044"
"1391","59.2297","85.4242"
"1396","59.4247","82.2993"
"1401","59.6197","71.4360"
"1406","59.8147","67.5024"
"1409","59.9317","66.3378"