File: mof-801_xrd/5L-5.csv
"No.","Pos. [°2θ]","Iobs [cps]"
"1","5.0197","149.8703"
"6","5.2147","146.9729"
"11","5.4097","135.7532"
"16","5.6047","132.4229"
"21","5.7997","128.8203"
"26","5.9947","125.7636"
"31","6.1897","125.0191"
"36","6.3847","124.1333"
"41","6.5797","122.5146"
"46","6.7747","121.8272"
"51","6.9697","125.2531"
"56","7.1647","125.7929"
"61","7.3597","125.2758"
"66","7.5547","127.7255"
"71","7.7497","131.8383"
"76","7.9447","141.1881"
"81","8.1397","164.7397"
"86","8.3347","230.0564"
"91","8.5297","405.1775"
"96","8.7247","237.9355"
"101","8.9197","192.3750"
"106","9.1147","181.2297"
"111","9.3097","175.5682"
"116","9.5047","174.9451"
"121","9.6997","196.6538"
"126","9.8947","253.6629"
"131","10.0897","159.4716"
"136","10.2847","139.5604"
"141","10.4797","134.8742"
"146","10.6747","130.3942"
"151","10.8697","128.1155"
"156","11.0647","124.3700"
"161","11.2597","122.0628"
"166","11.4547","123.1768"
"171","11.6497","119.1710"
"176","11.8447","117.8780"
"181","12.0397","117.6004"
"186","12.2347","115.5736"
"191","12.4297","113.5054"
"196","12.6247","110.8304"
"201","12.8197","112.9310"
"206","13.0147","111.2002"
"211","13.2097","109.3905"
"216","13.4047","109.2823"
"221","13.5997","110.5780"
"226","13.7947","112.2122"
"231","13.9897","116.0034"
"236","14.1847","107.8142"
"241","14.3797","108.5233"
"246","14.5747","107.5436"
"251","14.7697","107.0566"
"256","14.9647","104.7707"
"261","15.1597","103.6639"
"266","15.3547","103.3730"
"271","15.5497","102.2969"
"276","15.7447","103.8368"
"281","15.9397","102.4997"
"286","16.1347","105.6573"
"291","16.3297","101.0095"
"296","16.5247","102.1650"
"301","16.7197","101.5313"
"306","16.9147","101.5808"
"311","17.1097","102.0202"
"316","17.3047","101.4471"
"321","17.4997","98.8791"
"326","17.6947","98.2138"
"331","17.8897","98.9202"
"336","18.0847","97.6742"
"341","18.2797","98.4017"
"346","18.4747","99.1469"
"351","18.6697","97.9997"
"356","18.8647","98.8878"
"361","19.0597","100.0671"
"366","19.2547","97.8475"
"371","19.4497","99.1315"
"376","19.6447","98.1782"
"381","19.8397","104.9200"
"386","20.0347","97.4704"
"391","20.2297","98.6564"
"396","20.4247","97.7171"
"401","20.6197","98.3931"
"406","20.8147","97.4567"
"411","21.0097","97.9063"
"416","21.2047","98.5667"
"421","21.3997","105.2650"
"426","21.5947","127.5882"
"431","21.7897","113.2406"
"436","21.9847","104.1156"
"441","22.1797","105.2751"
"446","22.3747","102.2113"
"451","22.5697","103.4277"
"456","22.7647","106.1416"
"461","22.9597","103.2406"
"466","23.1547","103.2146"
"471","23.3497","102.1190"
"476","23.5447","99.7135"
"481","23.7397","101.5894"
"486","23.9347","104.6060"
"491","24.1297","109.4415"
"496","24.3247","120.0083"
"501","24.5197","109.1131"
"506","24.7147","107.4051"
"511","24.9097","103.7897"
"516","25.1047","103.2146"
"521","25.2997","105.5367"
"526","25.4947","105.4776"
"531","25.6897","112.2290"
"536","25.8847","137.4449"
"541","26.0797","109.2455"
"546","26.2747","100.2756"
"551","26.4697","101.5564"
"556","26.6647","101.1794"
"561","26.8597","98.2947"
"566","27.0547","100.8063"
"571","27.2497","97.8410"
"576","27.4447","99.5124"
"581","27.6397","98.5344"
"586","27.8347","97.8127"
"591","28.0297","98.8847"
"596","28.2247","102.8350"
"601","28.4197","98.0744"
"606","28.6147","96.6701"
"611","28.8097","100.7400"
"616","29.0047","100.8994"
"621","29.1997","98.3094"
"626","29.3947","101.8194"
"631","29.5897","109.3598"
"636","29.7847","112.2694"
"641","29.9797","147.1347"
"646","30.1747","106.0226"
"651","30.3697","96.1421"
"656","30.5647","94.3255"
"661","30.7597","94.0330"
"666","30.9547","94.8172"
"671","31.1497","92.7479"
"676","31.3447","91.4145"
"681","31.5397","91.9535"
"686","31.7347","92.3579"
"691","31.9297","93.4741"
"696","32.1247","92.7658"
"701","32.3197","89.2766"
"706","32.5147","94.9399"
"711","32.7097","97.4120"
"716","32.9047","100.2148"
"721","33.0997","93.0021"
"726","33.2947","89.0093"
"731","33.4897","90.0610"
"736","33.6847","87.3144"
"741","33.8797","88.3494"
"746","34.0747","86.4673"
"751","34.2697","89.7678"
"756","34.4647","87.9188"
"761","34.6597","102.9229"
"766","34.8547","98.0256"
"771","35.0497","88.1291"
"776","35.2447","89.2495"
"781","35.4397","91.5362"
"786","35.6347","91.0460"
"791","35.8297","96.1872"
"796","36.0247","88.9024"
"801","36.2197","87.5123"
"806","36.4147","87.7574"
"811","36.6097","85.4953"
"816","36.8047","83.9322"
"821","36.9997","84.7148"
"826","37.1947","84.2297"
"831","37.3897","82.2984"
"836","37.5847","86.5395"
"841","37.7797","85.1616"
"846","37.9747","85.2691"
"851","38.1697","85.3201"
"856","38.3647","84.1425"
"861","38.5597","96.2615"
"866","38.7547","96.3513"
"871","38.9497","84.4882"
"876","39.1447","82.5326"
"881","39.3397","84.3918"
"886","39.5347","84.0551"
"891","39.7297","82.9575"
"896","39.9247","85.2217"
"901","40.1197","84.8281"
"906","40.3147","88.6800"
"911","40.5097","86.7184"
"916","40.7047","83.8009"
"921","40.8997","86.9701"
"926","41.0947","86.6363"
"931","41.2897","87.0864"
"936","41.4847","89.8899"
"941","41.6797","96.3286"
"946","41.8747","87.5946"
"951","42.0697","84.2475"
"956","42.2647","84.3678"
"961","42.4597","84.7451"
"966","42.6547","87.3099"
"971","42.8497","94.0887"
"976","43.0447","88.6367"
"981","43.2397","83.6933"
"986","43.4347","85.8624"
"991","43.6297","89.8850"
"996","43.8247","102.2582"
"1001","44.0197","90.7165"
"1006","44.2147","86.5160"
"1011","44.4097","82.0901"
"1016","44.6047","84.1743"
"1021","44.7997","85.9135"
"1026","44.9947","82.9996"
"1031","45.1897","81.7101"
"1036","45.3847","84.5105"
"1041","45.5797","82.2708"
"1046","45.7747","79.6712"
"1051","45.9697","81.5494"
"1056","46.1647","84.4777"
"1061","46.3597","81.8859"
"1066","46.5547","79.8575"
"1071","46.7497","78.0835"
"1076","46.9447","79.0815"
"1081","47.1397","78.6665"
"1086","47.3347","78.6434"
"1091","47.5297","77.3735"
"1096","47.7247","76.2712"
"1101","47.9197","77.7630"
"1106","48.1147","77.0973"
"1111","48.3097","73.7967"
"1116","48.5047","80.2692"
"1121","48.6997","76.7896"
"1126","48.8947","76.2098"
"1131","49.0897","77.2770"
"1136","49.2847","78.2383"
"1141","49.4797","78.2922"
"1146","49.6747","76.8393"
"1151","49.8697","78.1024"
"1156","50.0647","78.1713"
"1161","50.2597","78.3178"
"1166","50.4547","80.0666"
"1171","50.6497","88.2453"
"1176","50.8447","90.7533"
"1181","51.0397","88.6243"
"1186","51.2347","82.8939"
"1191","51.4297","81.5476"
"1196","51.6247","76.2024"
"1201","51.8197","77.7340"
"1206","52.0147","80.3318"
"1211","52.2097","82.1799"
"1216","52.4047","76.4913"
"1221","52.5997","79.0814"
"1226","52.7947","80.0192"
"1231","52.9897","79.5918"
"1236","53.1847","80.3396"
"1241","53.3797","79.9853"
"1246","53.5747","78.0024"
"1251","53.7697","76.6872"
"1256","53.9647","76.0595"
"1261","54.1597","76.0962"
"1266","54.3547","75.4206"
"1271","54.5497","74.2558"
"1276","54.7447","75.8840"
"1281","54.9397","77.7653"
"1286","55.1347","76.5586"
"1291","55.3297","75.3562"
"1296","55.5247","76.3710"
"1301","55.7197","76.6921"
"1306","55.9147","72.8520"
"1311","56.1097","78.6572"
"1316","56.3047","80.2253"
"1321","56.4997","80.5935"
"1326","56.6947","76.1252"
"1331","56.8897","78.3557"
"1336","57.0847","78.5402"
"1341","57.2797","75.8119"
"1346","57.4747","74.1661"
"1351","57.6697","77.9336"
"1356","57.8647","73.2789"
"1361","58.0597","76.4149"
"1366","58.2547","76.6451"
"1371","58.4497","77.1605"
"1376","58.6447","76.5081"
"1381","58.8397","78.3909"
"1386","59.0347","81.6893"
"1391","59.2297","84.4067"
"1396","59.4247","82.7254"
"1401","59.6197","76.6683"
"1406","59.8147","74.9352"
"1409","59.9317","77.0881"